# keV, flux in 1/(s cm^2 A), flux error in 1/(s cm^2 A), Counts,             Angstrom,                  eV
             0.310100              0.000000               0.000000              1.000000             39.981998             310.100037
             0.310380              0.000000               0.000000              1.000000             39.945999             310.379517
             0.310659              0.000000               0.000000              1.000000             39.910000             310.659485
             0.310940              0.000000               0.000000              1.000000             39.874001             310.939941
             0.311221              0.000000               0.000000              1.000000             39.838001             311.220917
             0.311502              0.000000               0.000000              1.000000             39.801998             311.502441
             0.311784              0.000000               0.000000              1.000000             39.765999             311.784454
             0.312067              0.000000               0.000000              1.000000             39.730000             312.066925
             0.312350              0.000000               0.000000              1.000000             39.694000             312.349976
             0.312634              0.000000               0.000000              1.000000             39.658001             312.633514
             0.312918              0.000000               0.000000              1.000000             39.622002             312.917542
             0.313202              0.000000               0.000000              1.000000             39.585999             313.202148
             0.313487              0.000000               0.000000              1.000000             39.549999             313.487213
             0.313773              0.000000               0.000000              1.000000             39.514000             313.772858
             0.314059              0.000000               0.000000              1.000000             39.478001             314.058960
             0.314346              0.000000               0.000000              1.000000             39.442001             314.345612
             0.314633              0.000000               0.000000              1.000000             39.405998             314.632812
             0.314921              0.000000               0.000000              1.000000             39.369999             314.920502
             0.315209              0.000000               0.000000              1.000000             39.334000             315.208710
             0.315497              0.000000               0.000000              1.000000             39.298000             315.497467
             0.315787              0.000000               0.000000              1.000000             39.262001             315.786774
             0.316077              0.000000               0.000000              1.000000             39.226002             316.076538
             0.316367              0.000000               0.000000              1.000000             39.189999             316.366943
             0.316658              0.000000               0.000000              1.000000             39.153999             316.657806
             0.316949              0.000000               0.000000              1.000000             39.118000             316.949219
             0.317241              0.000000               0.000000              1.000000             39.082001             317.241180
             0.317534              0.000000               0.000000              1.000000             39.046001             317.533661
             0.317827              0.000000               0.000000              1.000000             39.009998             317.826691
             0.318120              0.000000               0.000000              1.000000             38.973999             318.120300
             0.318414              0.000000               0.000000              1.000000             38.938000             318.414398
             0.318709              0.000000               0.000000              1.000000             38.902000             318.709045
             0.319004              0.000000               0.000000              1.000000             38.866001             319.004272
             0.319300              0.000000               0.000000              1.000000             38.830002             319.300018
             0.319596              0.000000               0.000000              1.000000             38.793999             319.596344
             0.319893              0.000000               0.000000              1.000000             38.757999             319.893158
             0.320191              0.000000               0.000000              1.000000             38.722000             320.190582
             0.320489              0.000000               0.000000              1.000000             38.686001             320.488525
             0.320787              0.000000               0.000000              1.000000             38.650002             320.787048
             0.321086              0.000000               0.000000              1.000000             38.613998             321.086151
             0.321386              0.000000               0.000000              1.000000             38.577999             321.385773
             0.321686              0.000000               0.000000              1.000000             38.542000             321.685974
             0.321987              0.000000               0.000000              1.000000             38.506001             321.986694
             0.322288              0.000000               0.000000              1.000000             38.470001             322.288025
             0.322590              0.000000               0.000000              1.000000             38.433998             322.589905
             0.322892              0.000000               0.000000              1.000000             38.397999             322.892334
             0.323195              0.000000               0.000000              1.000000             38.362000             323.195343
             0.323499              0.000000               0.000000              1.000000             38.326000             323.498932
             0.323803              0.000000               0.000000              1.000000             38.290001             323.803101
             0.324108              0.000000               0.000000              1.000000             38.254002             324.107788
             0.324413              0.000000               0.000000              1.000000             38.217999             324.413116
             0.324719              0.342855               0.216837              1.000000             38.181999             324.718964
             0.325025              0.000000               0.000000              1.000000             38.146000             325.025421
             0.325332              0.065510               0.155394              1.000000             38.110001             325.332428
             0.325640              0.097885               0.154754              1.000000             38.074001             325.640045
             0.325948              0.174162               0.186769              1.000000             38.037998             325.948273
             0.326257              0.000000               0.000000              1.000000             38.001999             326.257019
             0.326566              0.108826               0.162233              1.000000             37.966000             326.566376
             0.326876              0.208835               0.152402              1.000000             37.930000             326.876312
             0.327187              0.016608               0.157453              1.000000             37.894001             327.186890
             0.327498              0.167073               0.179167              1.000000             37.858002             327.497986
             0.327810              0.127015               0.150631              1.000000             37.821999             327.809753
             0.328122             -0.031605               0.149950              1.000000             37.785999             328.122040
             0.328435              0.362329               0.168938              1.000000             37.750000             328.434937
             0.328748              0.125541               0.148870              1.000000             37.714001             328.748444
             0.329063              0.046886               0.148245              1.000000             37.678001             329.062561
             0.329377              0.155677               0.171859              1.000000             37.641998             329.377289
             0.329693              0.031010               0.151157              1.000000             37.605999             329.692596
             0.330009              0.339882               0.179504              1.000000             37.570000             330.008514
             0.330325              0.169309               0.146011              1.000000             37.534000             330.325012
             0.330642              0.076618               0.145375              1.000000             37.498001             330.642151
             0.330960              0.274836               0.176831              1.000000             37.462002             330.959869
             0.331278              0.258691               0.188067              1.000000             37.425999             331.278259
             0.331597              0.075748               0.167243              1.000000             37.389999             331.597198
             0.331917             -0.075461               0.143177              1.000000             37.354000             331.916779
             0.332237              0.150348               0.142634              1.000000             37.318001             332.236969
             0.332558              0.116945               0.146859              1.000000             37.282001             332.557770
             0.332879              0.084417               0.097961              1.000000             37.245998             332.879242
             0.333201              0.193289               0.105272              1.000000             37.209999             333.201263
             0.333524              0.110214               0.091707              1.000000             37.174000             333.523987
             0.333847             -0.034778               0.095559              1.000000             37.138000             333.847229
             0.334171              0.231273               0.109704              1.000000             37.102001             334.171204
             0.334496              0.175153               0.101350              1.000000             37.066002             334.495728
             0.334821              0.129207               0.090354              1.000000             37.029999             334.820953
             0.335147              0.081636               0.092597              1.000000             36.993999             335.146759
             0.335473              0.295229               0.110196              1.000000             36.958000             335.473206
             0.335800              0.218747               0.107500              1.000000             36.922001             335.800323
             0.336128              0.154343               0.095210              1.000000             36.886002             336.128021
             0.336456              0.187531               0.115671              1.000000             36.849998             336.456451
             0.336785              0.033062               0.091006              1.000000             36.813999             336.785461
             0.337115              0.135631               0.106368              1.000000             36.778000             337.115112
             0.337445              0.172070               0.105126              1.000000             36.742001             337.445404
             0.337776              0.070346               0.091037              1.000000             36.706001             337.776367
             0.338108              0.144276               0.100704              1.000000             36.669998             338.107971
             0.338440              0.134435               0.095910              1.000000             36.633999             338.440247
             0.338773              0.127291               0.101516              1.000000             36.598000             338.773163
             0.339107              0.134694               0.098010              1.000000             36.562000             339.106720
             0.339441              0.135307               0.101784              1.000000             36.526001             339.440918
             0.339776              0.057370               0.085329              1.000000             36.490002             339.775787
             0.340111              0.121563               0.090955              1.000000             36.453999             340.111389
             0.340448             -0.030879               0.087960              1.000000             36.417999             340.447571
             0.340784              0.155116               0.100167              1.000000             36.382000             340.784454
             0.341122              0.085795               0.094530              1.000000             36.346001             341.121979
             0.341460              0.044038               0.090531              1.000000             36.310001             341.460175
             0.341799              0.186046               0.096318              1.000000             36.273998             341.799072
             0.342139              0.117968               0.093119              1.000000             36.237999             342.138641
             0.342479              0.142597               0.099183              1.000000             36.202000             342.478882
             0.342820              0.184355               0.112632              1.000000             36.166000             342.819733
             0.343161              0.273906               0.096506              1.000000             36.130001             343.161346
             0.343504              0.225876               0.103149              1.000000             36.094002             343.503601
             0.343847              0.212842               0.091970              1.000000             36.057999             343.846588
             0.344190              0.149020               0.086237              1.000000             36.021999             344.190216
             0.344535              0.036587               0.080696              1.000000             35.986000             344.534515
             0.344880              0.180497               0.093998              1.000000             35.950001             344.879547
             0.345225              0.190854               0.095805              1.000000             35.914001             345.225220
             0.345572              0.130682               0.086094              1.000000             35.877998             345.571686
             0.345919              0.261331               0.116328              1.000000             35.841999             345.918762
             0.346267              0.073029               0.095973              1.000000             35.806000             346.266541
             0.346615              0.177268               0.098576              1.000000             35.770000             346.615021
             0.346964              0.034058               0.086721              1.000000             35.734001             346.964203
             0.347314              0.134688               0.084949              1.000000             35.698002             347.314117
             0.347665              0.057204               0.084167              1.000000             35.661999             347.664764
             0.348016              0.124905               0.087977              1.000000             35.625999             348.016052
             0.348368              0.121229               0.085212              1.000000             35.590000             348.368073
             0.348721              0.251035               0.092133              1.000000             35.554001             348.720795
             0.349074              0.075231               0.078661              1.000000             35.518002             349.074249
             0.349428              0.185411               0.094806              1.000000             35.481998             349.428467
             0.349783              0.244275               0.095700              1.000000             35.445999             349.783325
             0.350139              0.056220               0.075445              1.000000             35.410000             350.138947
             0.350495              0.205523               0.094388              1.000000             35.374001             350.495270
             0.350852              0.073953               0.079625              1.000000             35.338001             350.852325
             0.351210              0.210647               0.089666              1.000000             35.301998             351.210144
             0.351569              0.189216               0.085294              1.000000             35.265999             351.568634
             0.351928              0.201346               0.092869              1.000000             35.230000             351.927917
             0.352288              0.237849               0.091855              1.000000             35.194000             352.287872
             0.352649              0.075032               0.097182              1.000000             35.158001             352.648621
             0.353010              0.158599               0.091758              1.000000             35.122002             353.010040
             0.353372              0.173299               0.087994              1.000000             35.085999             353.372284
             0.353735              0.174597               0.081178              1.000000             35.049999             353.735229
             0.354099              0.188791               0.082864              1.000000             35.014000             354.098907
             0.354463              0.036812               0.077588              1.000000             34.978001             354.463379
             0.354829             -0.025951               0.095838              1.000000             34.942001             354.828552
             0.355195              0.038945               0.076406              1.000000             34.905998             355.194550
             0.355561              0.175155               0.087588              1.000000             34.869999             355.561249
             0.355929              0.005126               0.077873              1.000000             34.834000             355.928680
             0.356297              0.292938               0.089955              1.000000             34.798000             356.296906
             0.356666              0.077454               0.075544              1.000000             34.762001             356.665863
             0.357036              0.079287               0.081160              1.000000             34.726002             357.035645
             0.357406              0.050451               0.076039              1.000000             34.689999             357.406189
             0.357777              0.040615               0.072441              1.000000             34.653999             357.777466
             0.358150              0.162868               0.073839              1.000000             34.618000             358.149506
             0.358522              0.060820               0.068249              1.000000             34.582001             358.522339
             0.358896              0.174987               0.085091              1.000000             34.546001             358.895935
             0.359270              0.202164               0.079061              1.000000             34.509998             359.270355
             0.359646              0.014106               0.074067              1.000000             34.473999             359.645508
             0.360021             -0.045939               0.074288              1.000000             34.438000             360.021454
             0.360398              0.128759               0.074719              1.000000             34.402000             360.398224
             0.360776              0.204179               0.080725              1.000000             34.366001             360.775726
             0.361154              0.130038               0.074267              1.000000             34.330002             361.154083
             0.361533              0.018586               0.067003              1.000000             34.293999             361.533203
             0.361913              0.014352               0.065578              1.000000             34.257999             361.913116
             0.362294              0.077813               0.065267              1.000000             34.222000             362.293823
             0.362675             -0.034195               0.066823              1.000000             34.186001             362.675323
             0.363058              0.200039               0.079804              1.000000             34.150002             363.057648
             0.363441              0.131304               0.068907              1.000000             34.113998             363.440826
             0.363825              0.134587               0.064115              1.000000             34.077999             363.824738
             0.364210              0.136685               0.084037              1.000000             34.042000             364.209503
             0.364595              0.025386               0.092562              1.000000             34.006001             364.595062
             0.364981              0.166473               0.079190              1.000000             33.970001             364.981415
             0.365369              0.193633               0.076478              1.000000             33.933998             365.368683
             0.365757              0.112337               0.071493              1.000000             33.897999             365.756653
             0.366146              0.059753               0.064710              1.000000             33.862000             366.145538
             0.366535              0.126838               0.075993              1.000000             33.826000             366.535156
             0.366926              0.121345               0.070686              1.000000             33.790001             366.925690
             0.367317              0.097192               0.063309              1.000000             33.754002             367.317017
             0.367709              0.081992               0.065218              1.000000             33.717999             367.709229
             0.368102              0.147310               0.078654              1.000000             33.681999             368.102264
             0.368496              0.037157               0.071682              1.000000             33.646000             368.496094
             0.368891              0.104780               0.065073              1.000000             33.610001             368.890808
             0.369286              0.400029               0.102317              1.000000             33.574001             369.286316
             0.369683              0.153700               0.073928              1.000000             33.537998             369.682770
             0.370080              0.149384               0.089000              1.000000             33.501999             370.079987
             0.370478              0.181808               0.088620              1.000000             33.466000             370.478088
             0.370877              0.168473               0.097828              1.000000             33.430000             370.877045
             0.371277              0.173391               0.074260              1.000000             33.394001             371.276825
             0.371678              0.306868               0.082213              1.000000             33.358002             371.677551
             0.372079              0.251218               0.084748              1.000000             33.321999             372.079102
             0.372482              0.244470               0.080569              1.000000             33.285999             372.481506
             0.372885              0.169078               0.071038              1.000000             33.250000             372.884796
             0.373289              0.174069               0.064859              1.000000             33.214001             373.288940
             0.373694              0.326070               0.086054              1.000000             33.178001             373.693970
             0.374100              0.181528               0.068000              1.000000             33.141998             374.099945
             0.374507              0.111468               0.063181              1.000000             33.105999             374.506714
             0.374914              0.224573               0.074325              1.000000             33.070000             374.914429
             0.375323              0.075822               0.057803              1.000000             33.034000             375.322998
             0.375732              0.129092               0.059542              1.000000             32.998001             375.732452
             0.376143              0.192315               0.070995              1.000000             32.962002             376.142792
             0.376554              0.095396               0.056061              1.000000             32.925999             376.554077
             0.376966              0.095246               0.053310              1.000000             32.889999             376.966248
             0.377379              0.185312               0.072606              1.000000             32.854000             377.379272
             0.377793              0.163814               0.063664              1.000000             32.818001             377.793274
             0.378208              0.065567               0.053811              1.000000             32.782001             378.208130
             0.378624              0.073254               0.056297              1.000000             32.745998             378.623962
             0.379041              0.112692               0.068514              1.000000             32.709999             379.040649
             0.379458              0.085413               0.057293              1.000000             32.674000             379.458252
             0.379877              0.127275               0.100356              1.000000             32.638000             379.876831
             0.380296              0.035187               0.071489              1.000000             32.602001             380.296265
             0.380717              0.442230               0.129936              1.000000             32.566002             380.716675
             0.381138              0.171249               0.062994              1.000000             32.529999             381.138031
             0.381560              0.198745               0.067374              1.000000             32.493999             381.560272
             0.381983              0.146133               0.065086              1.000000             32.458000             381.983459
             0.382408              0.228920               0.071980              1.000000             32.422001             382.407593
             0.382833              0.271525               0.069832              1.000000             32.386002             382.832703
             0.383259              0.211147               0.065338              1.000000             32.349998             383.258759
             0.383686              0.074595               0.055657              1.000000             32.313999             383.685699
             0.384114              0.142919               0.055091              1.000000             32.278000             384.113617
             0.384543              0.309694               0.072834              1.000000             32.242001             384.542511
             0.384972              0.194330               0.061024              1.000000             32.206001             384.972321
             0.385403              0.207771               0.064442              1.000000             32.169998             385.403198
             0.385835              0.203973               0.062723              1.000000             32.133999             385.834930
             0.386268              0.087276               0.045731              1.000000             32.098000             386.267700
             0.386701              0.173215               0.055933              1.000000             32.062000             386.701385
             0.387136              0.232179               0.066620              1.000000             32.026001             387.136047
             0.387572              0.166116               0.058869              1.000000             31.990000             387.571747
             0.388008              0.270674               0.069103              1.000000             31.954000             388.008331
             0.388446              0.174018               0.060296              1.000000             31.917999             388.446045
             0.388885              0.256135               0.066159              1.000000             31.882000             388.884613
             0.389324              0.287559               0.072284              1.000000             31.846001             389.324249
             0.389765              0.258290               0.064933              1.000000             31.809999             389.764832
             0.390206              0.225242               0.059995              1.000000             31.774000             390.206421
             0.390649              0.121295               0.051082              1.000000             31.738001             390.649048
             0.391093              0.228452               0.064977              1.000000             31.702000             391.092651
             0.391537              0.217701               0.064647              1.000000             31.666000             391.537292
             0.391983              0.165818               0.059760              1.000000             31.629999             391.982910
             0.392430              0.181790               0.057139              1.000000             31.594000             392.429565
             0.392877              0.205290               0.061123              1.000000             31.558001             392.877228
             0.393326              0.154843               0.055216              1.000000             31.521999             393.325928
             0.393776              0.186040               0.057282              1.000000             31.486000             393.775635
             0.394226              0.166347               0.058525              1.000000             31.450001             394.226379
             0.394678              0.060446               0.051257              1.000000             31.414000             394.678162
             0.395131              0.172680               0.050733              1.000000             31.378000             395.130981
             0.395585              0.191225               0.058371              1.000000             31.341999             395.584839
             0.396040              0.370927               0.095974              1.000000             31.306000             396.039734
             0.396496              0.483204               0.101253              1.000000             31.270000             396.495667
             0.396953              0.260190               0.063060              1.000000             31.233999             396.952667
             0.397411              0.157999               0.062358              1.000000             31.198000             397.410736
             0.397870              0.222201               0.057272              1.000000             31.162001             397.869843
             0.398330              0.110367               0.052422              1.000000             31.125999             398.330017
             0.398791              0.251682               0.065611              1.000000             31.090000             398.791260
             0.399254              0.143760               0.051599              1.000000             31.054001             399.253540
             0.399717              0.160106               0.050857              1.000000             31.018000             399.716949
             0.400181              0.286122               0.061544              1.000000             30.982000             400.181366
             0.400647              0.286010               0.063644              1.000000             30.945999             400.646973
             0.401114              0.164443               0.051105              1.000000             30.910000             401.113525
             0.401581              0.185990               0.053304              1.000000             30.874001             401.581268
             0.402050              0.171586               0.062112              1.000000             30.837999             402.050049
             0.402520              0.200398               0.055171              1.000000             30.802000             402.519958
             0.402991              0.231666               0.057776              1.000000             30.766001             402.990967
             0.403463              0.238663               0.063102              1.000000             30.730000             403.463043
             0.403936              0.257394               0.057678              1.000000             30.694000             403.936249
             0.404411              0.159313               0.043283              1.000000             30.658001             404.410553
             0.404886              0.213052               0.051326              1.000000             30.622000             404.886017
             0.405363              0.283502               0.065335              1.000000             30.586000             405.362549
             0.405840              0.094270               0.046844              1.000000             30.549999             405.840271
             0.406319              0.227938               0.057226              1.000000             30.514000             406.319061
             0.406799              0.152826               0.049043              1.000000             30.478001             406.798981
             0.407280              0.153425               0.048209              1.000000             30.441999             407.280090
             0.407762              0.208115               0.053791              1.000000             30.406000             407.762268
             0.408246              0.370872               0.092324              1.000000             30.370001             408.245605
             0.408730              0.203574               0.083227              1.000000             30.334000             408.730103
             0.409216              0.231623               0.054257              1.000000             30.298000             409.215790
             0.409703              0.196994               0.051403              1.000000             30.261999             409.702576
             0.410191              0.263704               0.057019              1.000000             30.226000             410.190582
             0.410680              0.207923               0.053915              1.000000             30.190001             410.679688
             0.411170              0.270166               0.059805              1.000000             30.153999             411.169983
             0.411661              0.273669               0.056686              1.000000             30.118000             411.661469
             0.412154              0.162770               0.051250              1.000000             30.082001             412.154053
             0.412648              0.188370               0.049082              1.000000             30.046000             412.647949
             0.413143              0.269854               0.054610              1.000000             30.010000             413.142914
             0.413639              0.263372               0.058626              1.000000             29.974001             413.639160
             0.414137              0.228457               0.052917              1.000000             29.938000             414.136536
             0.414635              0.202604               0.051935              1.000000             29.902000             414.635101
             0.415135              0.249903               0.052089              1.000000             29.865999             415.134949
             0.415636              0.119969               0.045045              1.000000             29.830000             415.635925
             0.416138              0.257897               0.059530              1.000000             29.794001             416.138153
             0.416642              0.253862               0.053822              1.000000             29.757999             416.641571
             0.417146              0.136359               0.043365              1.000000             29.722000             417.146210
             0.417652              0.189617               0.045269              1.000000             29.686001             417.652069
             0.418159              0.227921               0.052445              1.000000             29.650000             418.159180
             0.418668              0.195035               0.047633              1.000000             29.614000             418.667511
             0.419177              0.186847               0.048703              1.000000             29.577999             419.177094
             0.419688              0.191961               0.053509              1.000000             29.542000             419.687866
             0.420200              0.182572               0.051986              1.000000             29.506001             420.199951
             0.420713              0.145940               0.041138              1.000000             29.469999             420.713287
             0.421228              0.097319               0.040496              1.000000             29.434000             421.227844
             0.421744              0.188982               0.049489              1.000000             29.398001             421.743652
             0.422261              0.249998               0.053194              1.000000             29.362000             422.260712
             0.422779              0.220266               0.048077              1.000000             29.326000             422.779114
             0.423299              0.199860               0.049070              1.000000             29.290001             423.298676
             0.423820              0.242137               0.054149              1.000000             29.254000             423.819672
             0.424342              0.163311               0.047867              1.000000             29.218000             424.341797
             0.424865              0.197441               0.052137              1.000000             29.181999             424.865326
             0.425390              0.209063               0.046183              1.000000             29.146000             425.390137
             0.425916              0.244398               0.050984              1.000000             29.110001             425.916138
             0.426444              0.237426               0.051922              1.000000             29.073999             426.443604
             0.426972              0.212440               0.052670              1.000000             29.038000             426.972229
             0.427502              0.177136               0.061207              1.000000             29.002001             427.502258
             0.428034              0.202236               0.057431              1.000000             28.966000             428.033539
             0.428566              0.223812               0.066722              1.000000             28.930000             428.566162
             0.429100              0.250034               0.049797              1.000000             28.893999             429.100128
             0.429635              0.222181               0.048331              1.000000             28.858000             429.635437
             0.430172              0.211171               0.043947              1.000000             28.822001             430.172058
             0.430710              0.247813               0.048573              1.000000             28.785999             430.710083
             0.431249              0.198672               0.044569              1.000000             28.750000             431.249390
             0.431790              0.251829               0.046905              1.000000             28.714001             431.790039
             0.432332              0.172894               0.040929              1.000000             28.677999             432.332123
             0.432875              0.176610               0.041854              1.000000             28.642000             432.875458
             0.433420              0.222489               0.047163              1.000000             28.606001             433.420227
             0.433966              0.270808               0.048982              1.000000             28.570000             433.966370
             0.434514              0.416065               0.060802              1.000000             28.534000             434.513916
             0.435063              0.231454               0.043579              1.000000             28.497999             435.062805
             0.435613              0.174036               0.041844              1.000000             28.462000             435.613068
             0.436165              0.186420               0.039923              1.000000             28.426001             436.164764
             0.436718              0.254779               0.044410              1.000000             28.389999             436.717834
             0.437272              0.192992               0.041123              1.000000             28.354000             437.272369
             0.437828              0.261959               0.046520              1.000000             28.318001             437.828186
             0.438386              0.188442               0.043755              1.000000             28.282000             438.385529
             0.438944              0.190551               0.042871              1.000000             28.246000             438.944244
             0.439504              0.234487               0.052996              1.000000             28.209999             439.504425
             0.440066              0.138020               0.050347              1.000000             28.174000             440.066010
             0.440629              0.161378               0.061397              1.000000             28.138000             440.628998
             0.441194              0.134850               0.040323              1.000000             28.101999             441.193512
             0.441759              0.252527               0.039832              1.000000             28.066000             441.759399
             0.442327              0.252675               0.043275              1.000000             28.030001             442.326752
             0.442896              0.111370               0.033663              1.000000             27.993999             442.895630
             0.443466              0.200137               0.037113              1.000000             27.958000             443.465912
             0.444038              0.195216               0.037239              1.000000             27.922001             444.037659
             0.444611              0.165183               0.035477              1.000000             27.886000             444.610931
             0.445186              0.209343               0.037225              1.000000             27.850000             445.185608
             0.445762              0.187943               0.036692              1.000000             27.813999             445.761871
             0.446340              0.264185               0.042342              1.000000             27.778000             446.339539
             0.446919              0.350645               0.046707              1.000000             27.742001             446.918732
             0.447499              0.149003               0.034152              1.000000             27.705999             447.499481
             0.448082              0.247072               0.038847              1.000000             27.670000             448.081635
             0.448665              0.191994               0.036993              1.000000             27.634001             448.665405
             0.449251              0.168205               0.034323              1.000000             27.598000             449.250641
             0.449837              0.177271               0.035187              1.000000             27.562000             449.837463
             0.450426              0.224292               0.039896              1.000000             27.525999             450.425781
             0.451016              0.173356               0.035827              1.000000             27.490000             451.015625
             0.451607              0.234647               0.041890              1.000000             27.454000             451.607056
             0.452200              0.216284               0.037104              1.000000             27.417999             452.200012
             0.452795              0.227302               0.038741              1.000000             27.382000             452.794556
             0.453391              0.275601               0.041799              1.000000             27.346001             453.390594
             0.453988              0.232595               0.040033              1.000000             27.309999             453.988281
             0.454587              0.312624               0.043361              1.000000             27.274000             454.587494
             0.455188              0.281657               0.042366              1.000000             27.238001             455.188293
             0.455791              0.230532               0.038072              1.000000             27.202000             455.790741
             0.456395              0.238733               0.039017              1.000000             27.166000             456.394745
             0.457000              0.202698               0.037820              1.000000             27.129999             457.000366
             0.457608              0.221677               0.039037              1.000000             27.094000             457.607574
             0.458216              0.229504               0.037438              1.000000             27.058001             458.216400
             0.458827              0.255657               0.041130              1.000000             27.021999             458.826843
             0.459439              0.236470               0.038077              1.000000             26.986000             459.438965
             0.460053              0.222719               0.038032              1.000000             26.950001             460.052673
             0.460668              0.270626               0.038914              1.000000             26.914000             460.668060
             0.461285              0.256033               0.040430              1.000000             26.878000             461.285065
             0.461904              0.261985               0.041252              1.000000             26.841999             461.903717
             0.462524              0.341549               0.049815              1.000000             26.806000             462.524078
             0.463146              0.254171               0.040054              1.000000             26.770000             463.145996
             0.463770              0.318796               0.041983              1.000000             26.733999             463.769775
             0.464395              0.224852               0.037318              1.000000             26.698000             464.395050
             0.465022              0.347667               0.043863              1.000000             26.662001             465.022125
             0.465651              0.321755               0.042103              1.000000             26.625999             465.650848
             0.466281              0.302354               0.040830              1.000000             26.590000             466.281281
             0.466913              0.306121               0.041026              1.000000             26.554001             466.913452
             0.467547              0.312844               0.041932              1.000000             26.518000             467.547302
             0.468183              0.302913               0.040262              1.000000             26.482000             468.182922
             0.468820              0.304390               0.041408              1.000000             26.445999             468.820251
             0.469459              0.349697               0.043022              1.000000             26.410000             469.459290
             0.470100              0.285149               0.039923              1.000000             26.374001             470.100067
             0.470743              0.266895               0.041036              1.000000             26.337999             470.742645
             0.471387              0.314046               0.041436              1.000000             26.302000             471.386963
             0.472033              0.408406               0.046240              1.000000             26.266001             472.033020
             0.472681              0.319477               0.040336              1.000000             26.230000             472.680908
             0.473331              0.335214               0.042953              1.000000             26.194000             473.330505
             0.473982              0.310885               0.041545              1.000000             26.158001             473.981934
             0.474635              0.399180               0.045540              1.000000             26.122000             474.635162
             0.475290              0.368843               0.042886              1.000000             26.086000             475.290192
             0.475947              0.394550               0.047834              1.000000             26.049999             475.946991
             0.476606              0.394977               0.050056              1.000000             26.014000             476.605682
             0.477266              0.340760               0.040725              1.000000             25.978001             477.266083
             0.477928              0.433301               0.046716              1.000000             25.941999             477.928467
             0.478593              0.311754               0.038913              1.000000             25.906000             478.592621
             0.479259              0.426971               0.046058              1.000000             25.870001             479.258575
             0.479926              0.372154               0.044645              1.000000             25.834000             479.926483
             0.480596              0.408764               0.055816              1.000000             25.798000             480.596130
             0.481268              0.367055               0.048192              1.000000             25.761999             481.267792
             0.481941              0.385583               0.043059              1.000000             25.726000             481.941193
             0.482617              0.427773               0.044984              1.000000             25.690001             482.616577
             0.483294              0.490398               0.048005              1.000000             25.653999             483.293823
             0.483973              0.379088               0.045400              1.000000             25.618000             483.972961
             0.484654              0.437577               0.045103              1.000000             25.582001             484.654053
             0.485337              0.462339               0.046184              1.000000             25.546000             485.337036
             0.486022              0.401558               0.045310              1.000000             25.510000             486.021973
             0.486709              0.499805               0.047593              1.000000             25.474001             486.708740
             0.487398              0.502445               0.048011              1.000000             25.438000             487.397583
             0.488088              0.537744               0.048365              1.000000             25.402000             488.088318
             0.488781              0.519414               0.047854              1.000000             25.365999             488.781067
             0.489476              0.437226               0.044581              1.000000             25.330000             489.475708
             0.490172              0.677008               0.054262              1.000000             25.294001             490.172333
             0.490871              0.586963               0.050659              1.000000             25.257999             490.871033
             0.491572              0.469206               0.046710              1.000000             25.222000             491.571625
             0.492274              0.629496               0.051540              1.000000             25.186001             492.274231
             0.492979              0.593866               0.050420              1.000000             25.150000             492.978882
             0.493686              0.571929               0.049579              1.000000             25.114000             493.685547
             0.494394              0.560499               0.048679              1.000000             25.077999             494.394287
             0.495105              0.634042               0.051907              1.000000             25.042000             495.105042
             0.495818              0.608102               0.051289              1.000000             25.006001             495.817780
             0.496533              0.643126               0.054074              1.000000             24.969999             496.532623
             0.497250              0.683930               0.063105              1.000000             24.934000             497.249512
             0.497968              0.754406               0.065533              1.000000             24.898001             497.968445
             0.498690              0.666059               0.052082              1.000000             24.862000             498.689575
             0.499413              0.820449               0.057456              1.000000             24.826000             499.412659
             0.500138              0.740010               0.063800              1.000000             24.790001             500.137939
             0.500865              0.773092               0.076220              1.000000             24.754000             500.865326
             0.501595              0.692400               0.071766              1.000000             24.718000             501.594757
             0.502326              0.783097               0.072898              1.000000             24.681999             502.326416
             0.503060              0.672594               0.052620              1.000000             24.646000             503.060120
             0.503796              0.760433               0.054042              1.000000             24.610001             503.796021
             0.504534              0.781671               0.055237              1.000000             24.573999             504.534058
             0.505274              0.741771               0.053438              1.000000             24.538000             505.274231
             0.506017              0.762175               0.053083              1.000000             24.502001             506.016602
             0.506761              0.789393               0.055666              1.000000             24.466000             506.761200
             0.507508              0.843007               0.054837              1.000000             24.430000             507.507965
             0.508257              0.842922               0.056691              1.000000             24.393999             508.256989
             0.509008              0.873001               0.056189              1.000000             24.358000             509.008087
             0.509762              0.897671               0.055932              1.000000             24.322001             509.761505
             0.510517              0.853035               0.056278              1.000000             24.285999             510.517151
             0.511275              0.937235               0.056861              1.000000             24.250000             511.275055
             0.512035              0.871183               0.054484              1.000000             24.214001             512.035156
             0.512798              0.937924               0.058027              1.000000             24.177999             512.797546
             0.513562              0.916292               0.056318              1.000000             24.142000             513.562256
             0.514329              0.957127               0.058404              1.000000             24.106001             514.329163
             0.515099              0.977672               0.057741              1.000000             24.070000             515.098511
             0.515870              0.921851               0.073951              1.000000             24.034000             515.869995
             0.516644              0.930012               0.082990              1.000000             23.997999             516.643860
             0.517420              1.061416               0.087132              1.000000             23.962000             517.420105
             0.518199              0.979368               0.083494              1.000000             23.926001             518.198547
             0.518979              1.097001               0.086574              1.000000             23.889999             518.979492
             0.519763              0.927094               0.082481              1.000000             23.854000             519.762695
             0.520548              1.060175               0.086019              1.000000             23.818001             520.548279
             0.521336              1.062035               0.085941              1.000000             23.782000             521.336304
             0.522127              1.055386               0.085194              1.000000             23.746000             522.126648
             0.522919              1.014205               0.084197              1.000000             23.709999             522.919495
             0.523715              1.231757               0.090118              1.000000             23.674000             523.714600
             0.524512              1.053467               0.085150              1.000000             23.638000             524.512207
             0.525312              0.803999               0.073838              1.000000             23.601999             525.312256
             0.526115              0.553386               0.062433              1.000000             23.566000             526.114685
             0.526920              0.490200               0.060289              1.000000             23.530001             526.919678
             0.527727              0.513791               0.059871              1.000000             23.493999             527.727051
             0.528537              0.775458               0.071862              1.000000             23.458000             528.536926
             0.529349              0.774840               0.074299              1.000000             23.422001             529.349304
             0.530164              0.928852               0.085871              1.000000             23.386000             530.164185
             0.530982              0.913241               0.083712              1.000000             23.350000             530.981567
             0.531802              1.003803               0.085489              1.000000             23.313999             531.801514
             0.532624              1.207481               0.089672              1.000000             23.278000             532.623901
             0.533449              1.156965               0.089723              1.000000             23.242001             533.448914
             0.534276              1.242222               0.093185              1.000000             23.205999             534.276428
             0.535107              1.086694               0.088596              1.000000             23.170000             535.106567
             0.535939              0.835618               0.081657              1.000000             23.134001             535.939270
             0.536775              0.794922               0.081152              1.000000             23.098000             536.774597
             0.537612              0.672305               0.077668              1.000000             23.062000             537.612488
             0.538453              0.732433               0.078257              1.000000             23.025999             538.453064
             0.539296              0.759771               0.077757              1.000000             22.990000             539.296204
             0.540142              0.750667               0.161783              1.000000             22.954000             540.141968
             0.540990              0.568231               0.071719              1.000000             22.917999             540.990479
             0.541842              0.461233               0.059964              1.000000             22.882000             541.841614
             0.542695              0.532818               0.063978              1.000000             22.846001             542.695374
             0.543552              0.609027               0.064267              1.000000             22.809999             543.551941
             0.544411              0.493029               0.058614              1.000000             22.774000             544.411133
             0.545273              0.413149               0.074500              1.000000             22.738001             545.273132
             0.546138              0.325279               0.052984              1.000000             22.702000             546.137817
             0.547005              0.309134               0.045340              1.000000             22.666000             547.005127
             0.547875              0.238934               0.040995              1.000000             22.629999             547.875427
             0.548748              0.246789               0.043611              1.000000             22.594000             548.748291
             0.549624              0.319813               0.046069              1.000000             22.558001             549.624084
             0.550503              0.264211               0.042379              1.000000             22.521999             550.502625
             0.551384              0.220023               0.039421              1.000000             22.486000             551.383972
             0.552268              0.312405               0.045391              1.000000             22.450001             552.268127
             0.553155              0.340614               0.045932              1.000000             22.414000             553.155151
             0.554045              0.226650               0.041476              1.000000             22.378000             554.045044
             0.554938              0.273862               0.042867              1.000000             22.341999             554.937805
             0.555833              0.296263               0.043307              1.000000             22.306000             555.833374
             0.556732              0.193634               0.035142              1.000000             22.270000             556.731873
             0.557633              0.221680               0.040546              1.000000             22.233999             557.633362
             0.558538              0.202935               0.038479              1.000000             22.198000             558.537720
             0.559445              0.248779               0.040682              1.000000             22.162001             559.444946
             0.560355              0.374926               0.046631              1.000000             22.125999             560.355225
             0.561268              0.348101               0.045274              1.000000             22.090000             561.268433
             0.562185              0.319556               0.045070              1.000000             22.054001             562.184570
             0.563104              0.368617               0.047551              1.000000             22.018000             563.103882
             0.564026              0.345387               0.045735              1.000000             21.982000             564.026001
             0.564951              0.288507               0.043976              1.000000             21.945999             564.951233
             0.565880              0.352139               0.046106              1.000000             21.910000             565.879517
             0.566811              0.320277               0.042728              1.000000             21.874001             566.810791
             0.567745              0.352884               0.060808              1.000000             21.837999             567.745239
             0.568683              0.370165               0.069830              1.000000             21.802000             568.682678
             0.569623              0.317997               0.043967              1.000000             21.766001             569.623291
             0.570567              0.256464               0.039659              1.000000             21.730000             570.566956
             0.571514              0.306904               0.040759              1.000000             21.694000             571.513733
             0.572464              0.377193               0.046991              1.000000             21.658001             572.463745
             0.573417              0.311625               0.041171              1.000000             21.622000             573.416870
             0.574373              0.374163               0.045075              1.000000             21.586000             574.373169
             0.575333              0.356429               0.044337              1.000000             21.549999             575.332703
             0.576295              0.290230               0.041614              1.000000             21.514000             576.295410
             0.577261              0.348822               0.044145              1.000000             21.478001             577.261353
             0.578231              0.371865               0.046765              1.000000             21.441999             578.230591
             0.579203              0.391886               0.047302              1.000000             21.406000             579.203003
             0.580179              0.391124               0.046069              1.000000             21.370001             580.178711
             0.581158              0.447546               0.048602              1.000000             21.334000             581.157776
             0.582140              0.494946               0.049343              1.000000             21.298000             582.140076
             0.583126              0.459817               0.048583              1.000000             21.261999             583.125793
             0.584115              0.424394               0.047613              1.000000             21.226000             584.114746
             0.585107              0.471828               0.049764              1.000000             21.190001             585.107117
             0.586103              0.480367               0.048476              1.000000             21.153999             586.102844
             0.587102              0.459544               0.048722              1.000000             21.118000             587.101990
             0.588104              0.536567               0.052189              1.000000             21.082001             588.104492
             0.589111              0.490539               0.049175              1.000000             21.046000             589.110535
             0.590120              0.538932               0.051346              1.000000             21.010000             590.119934
             0.591133              0.440788               0.047960              1.000000             20.974001             591.132812
             0.592149              0.460958               0.046919              1.000000             20.938000             592.149170
             0.593169              0.510665               0.050089              1.000000             20.902000             593.169006
             0.594192              0.505657               0.050486              1.000000             20.865999             594.192444
             0.595219              0.487064               0.072410              1.000000             20.830000             595.219421
             0.596250              0.000000               0.000000              1.000000             20.794001             596.249878
             0.597284              0.000000               0.000000              1.000000             20.757999             597.283936
             0.598322              0.466206               0.078440              1.000000             20.722000             598.321533
             0.599363              0.581094               0.052813              1.000000             20.686001             599.362793
             0.600408              0.508613               0.049757              1.000000             20.650000             600.407776
             0.601456              0.546823               0.050493              1.000000             20.614000             601.456238
             0.602508              0.567935               0.051718              1.000000             20.577999             602.508484
             0.603564              0.545164               0.051591              1.000000             20.542000             603.564392
             0.604624              0.640931               0.055283              1.000000             20.506001             604.623962
             0.605687              0.671369               0.056516              1.000000             20.469999             605.687378
             0.606754              0.612939               0.052600              1.000000             20.434000             606.754456
             0.607825              0.666197               0.054763              1.000000             20.398001             607.825256
             0.608900              0.665584               0.054732              1.000000             20.362000             608.899902
             0.609978              0.611524               0.052511              1.000000             20.326000             609.978333
             0.611061              0.569848               0.052027              1.000000             20.290001             611.060547
             0.612147              0.672200               0.054749              1.000000             20.254000             612.146729
             0.613237              0.649807               0.053315              1.000000             20.218000             613.236694
             0.614331              0.793800               0.057589              1.000000             20.181999             614.330627
             0.615428              0.675127               0.055834              1.000000             20.146000             615.428345
             0.616530              0.690022               0.055884              1.000000             20.110001             616.530029
             0.617636              0.775264               0.057113              1.000000             20.073999             617.635803
             0.618745              0.742337               0.056771              1.000000             20.038000             618.745361
             0.619859              0.749852               0.039838              1.000000             20.002001             619.859009
             0.620977              0.728333               0.038964              1.000000             19.966000             620.976624
             0.622098              0.863845               0.041880              1.000000             19.930000             622.098267
             0.623224              0.791941               0.040451              1.000000             19.893999             623.224121
             0.624354              0.793828               0.040321              1.000000             19.858000             624.353882
             0.625488              0.810998               0.040629              1.000000             19.822001             625.487854
             0.626626              0.823387               0.041185              1.000000             19.785999             626.625916
             0.627768              0.839857               0.041244              1.000000             19.750000             627.768066
             0.628914              0.803477               0.040115              1.000000             19.714001             628.914429
             0.630065              0.773138               0.039762              1.000000             19.677999             630.065002
             0.631220              0.847773               0.041260              1.000000             19.642000             631.219788
             0.632379              0.899604               0.041912              1.000000             19.606001             632.378845
             0.633542              0.882144               0.041840              1.000000             19.570000             633.542114
             0.634710              0.952637               0.045636              1.000000             19.534000             634.709717
             0.635882              0.820125               0.056366              1.000000             19.497999             635.881653
             0.637058              1.053207               0.047452              1.000000             19.462000             637.057800
             0.638238              0.978497               0.043242              1.000000             19.426001             638.238403
             0.639423              1.024514               0.043629              1.000000             19.389999             639.423401
             0.640613              1.025741               0.043946              1.000000             19.354000             640.612793
             0.641807              1.065815               0.044169              1.000000             19.318001             641.806519
             0.643005              0.992061               0.042287              1.000000             19.282000             643.004822
             0.644208              1.129840               0.045348              1.000000             19.246000             644.207581
             0.645415              1.133230               0.044708              1.000000             19.209999             645.414856
             0.646627              1.145703               0.045168              1.000000             19.174000             646.626709
             0.647843              1.245976               0.046777              1.000000             19.138000             647.843018
             0.649064              1.191129               0.045925              1.000000             19.101999             649.063965
             0.650289              1.179514               0.045230              1.000000             19.066000             650.289490
             0.651520              1.258507               0.046945              1.000000             19.030001             651.519653
             0.652755              1.186426               0.045739              1.000000             18.993999             652.754578
             0.653994              1.161437               0.059725              1.000000             18.958000             653.994080
             0.655238              1.247506               0.065431              1.000000             18.922001             655.238342
             0.656487              1.377804               0.050637              1.000000             18.886000             656.487366
             0.657741              1.416453               0.049145              1.000000             18.850000             657.741089
             0.659000              1.444424               0.049344              1.000000             18.813999             658.999695
             0.660263              1.409377               0.048530              1.000000             18.778000             660.263062
             0.661531              1.437267               0.048215              1.000000             18.742001             661.531311
             0.662804              1.320068               0.046674              1.000000             18.705999             662.804443
             0.664082              1.365163               0.047595              1.000000             18.670000             664.082458
             0.665365              1.439253               0.048285              1.000000             18.634001             665.365356
             0.666653              1.490225               0.048839              1.000000             18.598000             666.653381
             0.667946              1.463014               0.048003              1.000000             18.562000             667.946350
             0.669244              1.614674               0.050426              1.000000             18.525999             669.244324
             0.670547              1.614711               0.050006              1.000000             18.490000             670.547302
             0.671855              1.543313               0.049039              1.000000             18.454000             671.855408
             0.673169              1.615170               0.050027              1.000000             18.417999             673.168640
             0.674487              1.606817               0.049860              1.000000             18.382000             674.487000
             0.675810              1.597813               0.049367              1.000000             18.346001             675.810486
             0.677139              1.717193               0.050821              1.000000             18.309999             677.139221
             0.678473              1.711134               0.050645              1.000000             18.274000             678.473206
             0.679812              1.673627               0.053950              1.000000             18.238001             679.812439
             0.681157              1.737830               0.054900              1.000000             18.202000             681.157043
             0.682507              1.835655               0.051325              1.000000             18.166000             682.506897
             0.683862              1.819474               0.051573              1.000000             18.129999             683.862122
             0.685223              1.853192               0.051927              1.000000             18.094000             685.222717
             0.686589              1.811730               0.051210              1.000000             18.058001             686.588745
             0.687960              1.873821               0.052087              1.000000             18.021999             687.960266
             0.689337              1.877947               0.052612              1.000000             17.986000             689.337219
             0.690720              1.857274               0.053148              1.000000             17.950001             690.719727
             0.692108              2.021161               0.055573              1.000000             17.914000             692.107849
             0.693502              1.983299               0.055650              1.000000             17.878000             693.501526
             0.694901              1.947367               0.053914              1.000000             17.841999             694.900818
             0.696306              2.012974               0.054714              1.000000             17.806000             696.305725
             0.697716              1.935948               0.053523              1.000000             17.770000             697.716309
             0.699133              2.022947               0.053540              1.000000             17.733999             699.132751
             0.700555              2.014394               0.052947              1.000000             17.698000             700.554810
             0.701983              2.085454               0.053275              1.000000             17.662001             701.982727
             0.703417              2.055669               0.053016              1.000000             17.625999             703.416504
             0.704856              2.008197               0.052939              1.000000             17.590000             704.856140
             0.706302              1.862703               0.062441              1.000000             17.554001             706.301636
             0.707753              1.620752               0.049385              1.000000             17.518000             707.753174
             0.709211              1.510943               0.046293              1.000000             17.482000             709.210571
             0.710674              1.564033               0.046894              1.000000             17.445999             710.674072
             0.712144              1.685993               0.048438              1.000000             17.410000             712.143555
             0.713619              1.769073               0.049735              1.000000             17.374001             713.619141
             0.715101              1.859045               0.050454              1.000000             17.337999             715.100952
             0.716589              1.937687               0.051041              1.000000             17.302000             716.588806
             0.718083              1.903644               0.050677              1.000000             17.266001             718.082947
             0.719583              1.790967               0.049097              1.000000             17.230000             719.583313
             0.721090              1.796850               0.048467              1.000000             17.194000             721.089905
             0.722603              1.763073               0.058092              1.000000             17.158001             722.602783
             0.724122              1.833014               0.068811              1.000000             17.122000             724.122192
             0.725648              1.797200               0.068215              1.000000             17.086000             725.647888
             0.727180              1.938770               0.061267              1.000000             17.049999             727.180054
             0.728719              1.961597               0.054858              1.000000             17.014000             728.718628
             0.730264              2.119333               0.056561              1.000000             16.978001             730.263855
             0.731816              2.067129               0.055735              1.000000             16.941999             731.815613
             0.733374              2.250381               0.057342              1.000000             16.906000             733.373962
             0.734939              2.076239               0.055747              1.000000             16.870001             734.938904
             0.736511              2.294936               0.058471              1.000000             16.834000             736.510620
             0.738089              2.286938               0.057804              1.000000             16.798000             738.088989
             0.739674              2.292039               0.057084              1.000000             16.761999             739.674316
             0.741266              2.246676               0.056601              1.000000             16.726000             741.266296
             0.742865              2.374387               0.057494              1.000000             16.690001             742.865112
             0.744471              2.266830               0.056398              1.000000             16.653999             744.470947
             0.746084              2.380431               0.057547              1.000000             16.618000             746.083740
             0.747703              2.204651               0.055760              1.000000             16.582001             747.703491
             0.749330              2.334985               0.056960              1.000000             16.546000             749.330383
             0.750964              2.438149               0.059273              1.000000             16.510000             750.964294
             0.752605              2.369801               0.085189              1.000000             16.474001             752.605286
             0.754254              2.407985               0.087562              1.000000             16.438000             754.253540
             0.755909              2.313562               0.080216              1.000000             16.402000             755.908997
             0.757572              2.462496               0.060409              1.000000             16.365999             757.571838
             0.759242              2.496286               0.061056              1.000000             16.330000             759.241882
             0.760919              2.348975               0.059187              1.000000             16.294001             760.919373
             0.762604              2.465558               0.060107              1.000000             16.257999             762.604309
             0.764297              2.601893               0.061287              1.000000             16.222000             764.296631
             0.765996              2.544854               0.060837              1.000000             16.186001             765.996460
             0.767704              2.519184               0.060336              1.000000             16.150000             767.704041
             0.769419              2.478536               0.059835              1.000000             16.114000             769.419128
             0.771142              2.487562               0.059798              1.000000             16.077999             771.141968
             0.772872              2.598500               0.060823              1.000000             16.042000             772.872437
             0.774611              2.539496               0.059881              1.000000             16.006001             774.610718
             0.776357              2.717035               0.061303              1.000000             15.970000             776.356934
             0.778111              2.660939               0.060391              1.000000             15.934000             778.110901
             0.779873              2.680276               0.060749              1.000000             15.898000             779.872925
             0.781643              2.726515               0.066007              1.000000             15.862000             781.642883
             0.783421              2.653340               0.081421              1.000000             15.826000             783.420898
             0.785207              2.784227               0.062680              1.000000             15.790000             785.207092
             0.787001              2.760646               0.061096              1.000000             15.754000             787.001343
             0.788804              2.808155               0.060998              1.000000             15.718000             788.803833
             0.790615              2.888463               0.062018              1.000000             15.682000             790.614624
             0.792434              2.966420               0.062475              1.000000             15.646000             792.433777
             0.794261              2.891938               0.061743              1.000000             15.610000             794.261414
             0.796097              2.885800               0.061281              1.000000             15.574000             796.097351
             0.797942              2.895336               0.061605              1.000000             15.538000             797.941772
             0.799795              2.970590               0.061645              1.000000             15.502000             799.794861
             0.801657              2.962557               0.061577              1.000000             15.466000             801.656555
             0.803527              3.001265               0.061610              1.000000             15.430000             803.526855
             0.805406              3.084313               0.062927              1.000000             15.394000             805.406006
             0.807294              3.086962               0.071190              1.000000             15.358000             807.293823
             0.809191              2.874183               0.078451              1.000000             15.322000             809.190674
             0.811096              3.173985               0.072437              1.000000             15.286000             811.096436
             0.813011              3.019291               0.081264              1.000000             15.250000             813.011169
             0.814935              3.042878               0.083812              1.000000             15.214000             814.934998
             0.816868              3.041638               0.064996              1.000000             15.178000             816.867798
             0.818810              3.094216               0.061506              1.000000             15.142000             818.809875
             0.820761              3.207609               0.062649              1.000000             15.106000             820.761230
             0.822722              3.235595               0.062522              1.000000             15.070000             822.721985
             0.824692              3.243983               0.062425              1.000000             15.034000             824.691956
             0.826672              3.203117               0.061566              1.000000             14.998000             826.671509
             0.828661              3.431372               0.073418              1.000000             14.962000             828.660583
             0.830659              3.515871               0.092290              1.000000             14.926000             830.659302
             0.832668              3.346874               0.064864              1.000000             14.890000             832.667542
             0.834686              3.157017               0.060660              1.000000             14.854000             834.685608
             0.836713              3.267674               0.061615              1.000000             14.818000             836.713379
             0.838751              3.105337               0.059696              1.000000             14.782000             838.751160
             0.840799              3.239562               0.062015              1.000000             14.746000             840.798767
             0.842857              3.445919               0.091017              1.000000             14.710000             842.856506
             0.844924              3.358508               0.066910              1.000000             14.674000             844.924316
             0.847002              3.224899               0.060121              1.000000             14.638000             847.002319
             0.849091              3.119427               0.059233              1.000000             14.602000             849.090515
             0.851189              3.289870               0.060385              1.000000             14.566000             851.189026
             0.853298              3.348072               0.060724              1.000000             14.530000             853.298035
             0.855417              3.286868               0.060201              1.000000             14.494000             855.417358
             0.857547              3.183436               0.065413              1.000000             14.458000             857.547363
             0.859688              3.338144               0.067010              1.000000             14.422000             859.687927
             0.861839              3.390499               0.060215              1.000000             14.386000             861.839233
             0.864001              3.373371               0.059840              1.000000             14.350000             864.001404
             0.866174              3.197981               0.058851              1.000000             14.314000             866.174377
             0.868358              2.979824               0.056361              1.000000             14.278000             868.358337
             0.870553              2.943223               0.055762              1.000000             14.242000             870.553284
             0.872759              2.941903               0.055418              1.000000             14.206000             872.759338
             0.874977              2.862893               0.054839              1.000000             14.170000             874.976685
             0.877205              2.890333               0.055171              1.000000             14.134000             877.205322
             0.879445              2.883181               0.054923              1.000000             14.098000             879.445251
             0.881697              2.935926               0.054672              1.000000             14.062000             881.696655
             0.883960              2.947615               0.054968              1.000000             14.026000             883.959778
             0.886234              2.991861               0.055242              1.000000             13.990000             886.234497
             0.888521              2.937484               0.054394              1.000000             13.954000             888.520813
             0.890819              2.870084               0.053809              1.000000             13.918000             890.819092
             0.893129              2.874129               0.053439              1.000000             13.882000             893.129150
             0.895451              2.922079               0.053952              1.000000             13.846000             895.451355
             0.897786              2.916662               0.053690              1.000000             13.810000             897.785583
             0.900132              2.886046               0.053377              1.000000             13.774000             900.132080
             0.902491              2.911729               0.062182              1.000000             13.738000             902.490906
             0.904862              3.044227               0.074915              1.000000             13.702000             904.862000
             0.907246              2.874830               0.072870              1.000000             13.666000             907.245667
             0.909642              2.911750               0.073465              1.000000             13.630000             909.641968
             0.912051              2.803924               0.072024              1.000000             13.594000             912.050903
             0.914473              2.914305               0.072888              1.000000             13.558000             914.472717
             0.916907              2.706035               0.070868              1.000000             13.522000             916.907227
             0.919355              2.800204               0.071186              1.000000             13.486000             919.354797
             0.921816              2.722982               0.071948              1.000000             13.450000             921.815552
             0.924290              2.811962               0.070904              1.000000             13.414000             924.289551
             0.926777              3.067079               0.073811              1.000000             13.378000             926.776733
             0.929278              3.018871               0.072304              1.000000             13.342000             929.277527
             0.931792              3.076101               0.072977              1.000000             13.306000             931.791687
             0.934319              3.159871               0.074177              1.000000             13.270000             934.319458
             0.936861              3.154181               0.073837              1.000000             13.234000             936.861084
             0.939417              3.079722               0.072794              1.000000             13.198000             939.416565
             0.941986              3.034717               0.072323              1.000000             13.162000             941.985962
             0.944569              3.040782               0.124261              1.000000             13.126000             944.569397
             0.947167              0.000000               0.000000              1.000000             13.090000             947.167175
             0.949779              0.000000               0.000000              1.000000             13.054000             949.779297
             0.952406              2.761268               0.108093              1.000000             13.018000             952.405884
             0.955047              2.685506               0.097881              1.000000             12.982000             955.046997
             0.957703              2.610245               0.096294              1.000000             12.946000             957.702698
             0.960373              2.534230               0.095381              1.000000             12.910000             960.373352
             0.963059              2.736345               0.098243              1.000000             12.874000             963.058899
             0.965759              2.757212               0.098319              1.000000             12.838000             965.759399
             0.968475              2.810768               0.099844              1.000000             12.802000             968.475220
             0.971206              2.906734               0.099762              1.000000             12.766000             971.206238
             0.973953              2.998562               0.101855              1.000000             12.730000             973.952820
             0.976715              3.173388               0.103882              1.000000             12.694000             976.714966
             0.979493              2.999555               0.101218              1.000000             12.658000             979.492859
             0.982287              3.082348               0.101173              1.000000             12.622000             982.286560
             0.985096              3.089075               0.100993              1.000000             12.586000             985.096130
             0.987922              3.268923               0.103183              1.000000             12.550000             987.921814
             0.990764              3.175827               0.102192              1.000000             12.514000             990.763916
             0.993622              3.194029               0.102819              1.000000             12.478000             993.622375
             0.996497              3.214261               0.102565              1.000000             12.442000             996.497314
             0.999389              3.127357               0.101228              1.000000             12.406000             999.389038
             1.002297              3.206691               0.102193              1.000000             12.370000            1002.297424
             1.005223              3.001970               0.099095              1.000000             12.334000            1005.222961
             1.008166              3.005514               0.098553              1.000000             12.298000            1008.165527
             1.011125              2.970037               0.097846              1.000000             12.262000            1011.125427
             1.014103              3.243582               0.101732              1.000000             12.226000            1014.102661
             1.017098              3.228777               0.101992              1.000000             12.190000            1017.097595
             1.020110              3.237137               0.100398              1.000000             12.154000            1020.110229
             1.023141              3.242937               0.100739              1.000000             12.118000            1023.140808
             1.026189              3.332752               0.102055              1.000000             12.082000            1026.189453
             1.029256              3.255187               0.101107              1.000000             12.046000            1029.256104
             1.032341              3.261562               0.100858              1.000000             12.010000            1032.341309
             1.035445              3.282815               0.100801              1.000000             11.974000            1035.445068
             1.038568              3.254489               0.099008              1.000000             11.938000            1038.567627
             1.041709              3.478688               0.103318              1.000000             11.902000            1041.708862
             1.044869              3.613265               0.104167              1.000000             11.866000            1044.869385
             1.048049              3.369730               0.099857              1.000000             11.830000            1048.048950
             1.051248              3.278098               0.098956              1.000000             11.794000            1051.248047
             1.054467              3.431679               0.101126              1.000000             11.758000            1054.466675
             1.057705              3.334344               0.100078              1.000000             11.722000            1057.705200
             1.060964              3.647809               0.103207              1.000000             11.686000            1060.963623
             1.064242              3.449536               0.100781              1.000000             11.650000            1064.242065
             1.067541              3.470878               0.100889              1.000000             11.614000            1067.540771
             1.070860              3.460156               0.100096              1.000000             11.578000            1070.860229
             1.074200              3.391791               0.099039              1.000000             11.542000            1074.200317
             1.077561              3.436336               0.140536              1.000000             11.506000            1077.561279
             1.080943              3.403742               0.098934              1.000000             11.470000            1080.943359
             1.084347              3.212524               0.096628              1.000000             11.434000            1084.346680
             1.087771              3.401399               0.098351              1.000000             11.398000            1087.771484
             1.091218              3.453431               0.098556              1.000000             11.362000            1091.218018
             1.094687              3.478927               0.099910              1.000000             11.326000            1094.686523
             1.098177              3.476713               0.099070              1.000000             11.290000            1098.177124
             1.101690              3.631083               0.100838              1.000000             11.254000            1101.690063
             1.105225              3.559953               0.100336              1.000000             11.218000            1105.225464
             1.108784              3.818044               0.102245              1.000000             11.182000            1108.783691
             1.112365              3.539940               0.099217              1.000000             11.146000            1112.364990
             1.115969              3.580394               0.098710              1.000000             11.110000            1115.969360
             1.119597              3.458511               0.097760              1.000000             11.074000            1119.597168
             1.123249              3.408506               0.097094              1.000000             11.038000            1123.248657
             1.126924              3.501983               0.097728              1.000000             11.002000            1126.924194
             1.130624              3.327927               0.094654              1.000000             10.966000            1130.623779
             1.134348              3.623769               0.099440              1.000000             10.930000            1134.347656
             1.138096              3.407147               0.095605              1.000000             10.894000            1138.096069
             1.141870              3.412163               0.096135              1.000000             10.858000            1141.869507
             1.145668              3.572644               0.097688              1.000000             10.822000            1145.668091
             1.149492              3.570925               0.097329              1.000000             10.786000            1149.491943
             1.153341              3.550531               0.097927              1.000000             10.750000            1153.341309
             1.157217              3.489050               0.096379              1.000000             10.714000            1157.216675
             1.161118              3.543653               0.097087              1.000000             10.678000            1161.118164
             1.165046              3.369064               0.094656              1.000000             10.642000            1165.046021
             1.169001              3.597123               0.097410              1.000000             10.606000            1169.000610
             1.172982              3.440224               0.095923              1.000000             10.570000            1172.982056
             1.176991              3.682812               0.098303              1.000000             10.534000            1176.990601
             1.181027              3.796248               0.071860              1.000000             10.498000            1181.026855
             1.185091              3.657186               0.067356              1.000000             10.462000            1185.090820
             1.189183              3.679718               0.067486              1.000000             10.426000            1189.182739
             1.193303              3.700564               0.067401              1.000000             10.390000            1193.302979
             1.197452              3.714297               0.067486              1.000000             10.354000            1197.452148
             1.201630              3.771741               0.068037              1.000000             10.318000            1201.630127
             1.205837              3.654312               0.066644              1.000000             10.282000            1205.837402
             1.210074              3.630500               0.066467              1.000000             10.246000            1210.074097
             1.214341              3.690489               0.066821              1.000000             10.210000            1214.340698
             1.218638              3.568835               0.073588              1.000000             10.174000            1218.637695
             1.222965              3.422516               0.083269              1.000000             10.138000            1222.965088
             1.227323              3.548751               0.065662              1.000000             10.102000            1227.323242
             1.231713              3.544851               0.065003              1.000000             10.066000            1231.712646
             1.236134              3.544407               0.081473              1.000000             10.030000            1236.133545
             1.240586              3.545086               0.089149              1.000000              9.994000            1240.586304
             1.245071              3.764188               0.091752              1.000000              9.958000            1245.071289
             1.249589              3.265750               0.092561              1.000000              9.922000            1249.588745
             1.254139              3.590828               0.099327              1.000000              9.886000            1254.139160
             1.258723              3.312761               0.094045              1.000000              9.850000            1258.722778
             1.263340              3.394169               0.094080              1.000000              9.814000            1263.340088
             1.267991              3.673072               0.099267              1.000000              9.778000            1267.991455
             1.272677              3.377753               0.094580              1.000000              9.742000            1272.677002
             1.277397              3.354720               0.095567              1.000000              9.706000            1277.397461
             1.282153              3.071931               0.121160              1.000000              9.670000            1282.153076
             1.286944              3.329266               0.097272              1.000000              9.634000            1286.944092
             1.291771              3.279021               0.091024              1.000000              9.598000            1291.771240
             1.296635              3.379413               0.091592              1.000000              9.562000            1296.634521
             1.301535              3.408780               0.094594              1.000000              9.526000            1301.534790
             1.306472              3.076511               0.087968              1.000000              9.490000            1306.472046
             1.311447              3.182993               0.089489              1.000000              9.454000            1311.446899
             1.316460              3.143121               0.088890              1.000000              9.418000            1316.459839
             1.321511              3.108834               0.087594              1.000000              9.382000            1321.511230
             1.326602              3.252197               0.090663              1.000000              9.346000            1326.601807
             1.331731              3.177360               0.090710              1.000000              9.310000            1331.731445
             1.336901              3.247547               0.091044              1.000000              9.274000            1336.900879
             1.342111              3.069867               0.087322              1.000000              9.238000            1342.110840
             1.347361              2.988246               0.088442              1.000000              9.202000            1347.361450
             1.352653              2.977697               0.086218              1.000000              9.166000            1352.653198
             1.357987              3.050442               0.087122              1.000000              9.130000            1357.986816
             1.363363              2.827584               0.103871              1.000000              9.094000            1363.362549
             1.368781              3.022782               0.086206              1.000000              9.058000            1368.781250
             1.374243              2.976516               0.085398              1.000000              9.022000            1374.242920
             1.379748              2.978551               0.086145              1.000000              8.986000            1379.748413
             1.385298              3.067444               0.087189              1.000000              8.950000            1385.298340
             1.390893              3.136150               0.087639              1.000000              8.914000            1390.892944
             1.396533              3.024329               0.086700              1.000000              8.878000            1396.532959
             1.402219              2.975860               0.084923              1.000000              8.842000            1402.218994
             1.407951              3.186385               0.087734              1.000000              8.806000            1407.951416
             1.413731              3.036651               0.084990              1.000000              8.770000            1413.730713
             1.419558              2.945725               0.085328              1.000000              8.734000            1419.557983
             1.425433              2.929507               0.081771              1.000000              8.698000            1425.433472
             1.431358              2.934592               0.084692              1.000000              8.662000            1431.357788
             1.437331              3.018049               0.084843              1.000000              8.626000            1437.331299
             1.443355              2.831714               0.081454              1.000000              8.590000            1443.354980
             1.449429              2.931565               0.085972              1.000000              8.554000            1449.429443
             1.455555              2.968616               0.084001              1.000000              8.518000            1455.555420
             1.461733              2.901695               0.080925              1.000000              8.482000            1461.733032
             1.467963              2.954460               0.082928              1.000000              8.446000            1467.963379
             1.474247              2.695015               0.078863              1.000000              8.410000            1474.247314
             1.480585              2.854120               0.081714              1.000000              8.374000            1480.585205
             1.486978              2.911303               0.082652              1.000000              8.338000            1486.977539
             1.493426              2.901572               0.081865              1.000000              8.302000            1493.425659
             1.499930              2.830201               0.079608              1.000000              8.266000            1499.929810
             1.506491              2.831902               0.079679              1.000000              8.230000            1506.490845
             1.513110              2.911038               0.080865              1.000000              8.194000            1513.109619
             1.519787              2.857405               0.079580              1.000000              8.158000            1519.786621
             1.526523              2.719392               0.077696              1.000000              8.122000            1526.523071
             1.533319              2.881879               0.080536              1.000000              8.086000            1533.319214
             1.540176              2.819877               0.079507              1.000000              8.050000            1540.176392
             1.547095              2.811901               0.079680              1.000000              8.014000            1547.095093
             1.554076              2.765294               0.078076              1.000000              7.978000            1554.076050
             1.561121              2.569234               0.074365              1.000000              7.942000            1561.120605
             1.568229              2.626017               0.077245              1.000000              7.906000            1568.229126
             1.575403              2.649216               0.077600              1.000000              7.870000            1575.402832
             1.582642              2.766977               0.080433              1.000000              7.834000            1582.642334
             1.589949              2.730770               0.078011              1.000000              7.798000            1589.948608
             1.597323              2.815780               0.081376              1.000000              7.762000            1597.322754
             1.604766              2.453381               0.124603              1.000000              7.726000            1604.765747
             1.612278              2.589322               0.140827              1.000000              7.690000            1612.278198
             1.619862              2.514879               0.103646              1.000000              7.654000            1619.861572
             1.627516              2.485638               0.075132              1.000000              7.618000            1627.516235
             1.635244              2.551840               0.074695              1.000000              7.582000            1635.243896
             1.643045              2.668901               0.076868              1.000000              7.546000            1643.045410
             1.650921              2.655880               0.076234              1.000000              7.510000            1650.921265
             1.658873              2.671434               0.077695              1.000000              7.474000            1658.873413
             1.666902              2.682382               0.077154              1.000000              7.438000            1666.902344
             1.675010              2.620929               0.076504              1.000000              7.402000            1675.009521
             1.683196              2.624842               0.077085              1.000000              7.366000            1683.195679
             1.691462              2.676811               0.078291              1.000000              7.330000            1691.462402
             1.699811              2.685413               0.078800              1.000000              7.294000            1699.810669
             1.708242              2.684585               0.077928              1.000000              7.258000            1708.241943
             1.716757              2.402713               0.075585              1.000000              7.222000            1716.757080
             1.725358              2.860542               0.073086              1.000000              7.186000            1725.357666
             1.734045              2.770202               0.072083              1.000000              7.150000            1734.044556
             1.742820              2.649725               0.060586              1.000000              7.114000            1742.819702
             1.751684              2.723192               0.060682              1.000000              7.078000            1751.684204
             1.760639              2.500317               0.058962              1.000000              7.042000            1760.639038
             1.769686              2.727399               0.068847              1.000000              7.006000            1769.685913
             1.778826              2.681474               0.086097              1.000000              6.970000            1778.826294
             1.788062              2.650214               0.061512              1.000000              6.934000            1788.061523
             1.797394              2.702721               0.061789              1.000000              6.898000            1797.393555
             1.806823              2.567399               0.060884              1.000000              6.862000            1806.822998
             1.816352              2.468170               0.059961              1.000000              6.826000            1816.352051
             1.825982              2.518139               0.061316              1.000000              6.790000            1825.982300
             1.835715              2.558797               0.062254              1.000000              6.754000            1835.715088
             1.845552              2.454305               0.059308              1.000000              6.718000            1845.552368
             1.855495              2.495043               0.060460              1.000000              6.682000            1855.495117
             1.865546              2.419814               0.059368              1.000000              6.646000            1865.546143
             1.875706              2.422712               0.059757              1.000000              6.610000            1875.706421
             1.885978              2.361589               0.059179              1.000000              6.574000            1885.978149
             1.896363              2.362989               0.058660              1.000000              6.538000            1896.362793
             1.906862              2.432432               0.061224              1.000000              6.502000            1906.862427
             1.917479              2.443382               0.062514              1.000000              6.466000            1917.479004
             1.928215              2.374301               0.065502              1.000000              6.430000            1928.214600
             1.939071              2.341933               0.062494              1.000000              6.394000            1939.070923
             1.950050              2.296626               0.070389              1.000000              6.358000            1950.050415
             1.961155              2.317848               0.063123              1.000000              6.322000            1961.154663
             1.972386              2.309519               0.063323              1.000000              6.286000            1972.386353
             1.983747              2.293653               0.064321              1.000000              6.250000            1983.747192
             1.995240              2.302629               0.065401              1.000000              6.214000            1995.239502
             2.006866              2.151170               0.063964              1.000000              6.178000            2006.866211
             2.018629              2.302446               0.069379              1.000000              6.142000            2018.629150
             2.030531              2.292467               0.070972              1.000000              6.106000            2030.530518
             2.042573              2.233604               0.071763              1.000000              6.070000            2042.573242
             2.054760              2.256863               0.074935              1.000000              6.034000            2054.759521
             2.067092              2.179479               0.076949              1.000000              5.998000            2067.092285
             2.079574              2.189318               0.079065              1.000000              5.962000            2079.573975
             2.092207              2.111284               0.081374              1.000000              5.926000            2092.207031
             2.104995              1.917987               0.082932              1.000000              5.890000            2104.995117
             2.117940              1.818243               0.086268              1.000000              5.854000            2117.939941
             2.131045              1.686869               0.083380              1.000000              5.818000            2131.045166
             2.144313              1.790708               0.092088              1.000000              5.782000            2144.313477
             2.157748              1.592481               0.092224              1.000000              5.746000            2157.747803
             2.171352              1.301340               0.085812              1.000000              5.710000            2171.352051
             2.185128              1.260980               0.091686              1.000000              5.674000            2185.128418
             2.199081              1.162272               0.096937              1.000000              5.638000            2199.081055
             2.213213              1.168744               0.104129              1.000000              5.602000            2213.212891
             2.227528              1.270216               0.125875              1.000000              5.566000            2227.527832
             2.242029              0.953475               0.117243              1.000000              5.530000            2242.028809
             2.256720              1.200522               0.141366              1.000000              5.494000            2256.719971
             2.271605              1.208492               0.152530              1.000000              5.458000            2271.604736
             2.286688              1.289799               0.183394              1.000000              5.422000            2286.687500
             2.301972              1.371355               0.178209              1.000000              5.386000            2301.971680
             2.317462              1.205392               0.186657              1.000000              5.350000            2317.461670
             2.333161              1.491387               0.206044              1.000000              5.314000            2333.161377
             2.349075              0.798238               0.171568              1.000000              5.278000            2349.075195
             2.365208              1.339064               0.210121              1.000000              5.242000            2365.208008
             2.381564              1.118238               0.196765              1.000000              5.206000            2381.563721
             2.398147              1.300325               0.218686              1.000000              5.170000            2398.146973
             2.414963              1.538164               0.353985              1.000000              5.134000            2414.962891
             2.432016              0.794543               0.279304              1.000000              5.098000            2432.016357
             2.449313              0.996952               0.278656              1.000000              5.062000            2449.312744
             2.466856              0.972529               0.287048              1.000000              5.026000            2466.856201
             2.484653              0.780752               0.239806              1.000000              4.990000            2484.653320
             2.502709              1.109421               0.293854              1.000000              4.954000            2502.708984
             2.521029              1.521211               0.322859              1.000000              4.918000            2521.028809
             2.539619              0.856293               0.278629              1.000000              4.882000            2539.618896
             2.558485              0.824063               0.230306              1.000000              4.846000            2558.485107
             2.577634              0.329420               0.151897              1.000000              4.810000            2577.634033
             2.597071              0.742323               0.221015              1.000000              4.774000            2597.071289
             2.616805              0.685294               0.209621              1.000000              4.738000            2616.804688
             2.636839              0.701339               0.197580              1.000000              4.702000            2636.839355
             2.657184              0.757871               0.326138              1.000000              4.666000            2657.183838
             2.677844              0.000000               0.000000              1.000000              4.630000            2677.844482
             2.698829              0.000000               0.000000              1.000000              4.594000            2698.829102
             2.720145              0.000000               0.000000              1.000000              4.558000            2720.144531
             2.741800              0.000000               0.000000              1.000000              4.522000            2741.800049
             2.763803              0.000000               0.000000              1.000000              4.486000            2763.802979
             2.786162              0.000000               0.000000              1.000000              4.450000            2786.161621
             2.808885              0.000000               0.000000              1.000000              4.414000            2808.885254
             2.831983              0.000000               0.000000              1.000000              4.378000            2831.982666
             2.855463              0.000000               0.000000              1.000000              4.342000            2855.462891
             2.879335              0.000000               0.000000              1.000000              4.306000            2879.335449
             2.903611              0.000000               0.000000              1.000000              4.270000            2903.611328
             2.928299              0.000000               0.000000              1.000000              4.234000            2928.299072
             2.953411              0.000000               0.000000              1.000000              4.198000            2953.411133
             2.978957              0.000000               0.000000              1.000000              4.162000            2978.957031
             3.004949              0.000000               0.000000              1.000000              4.126000            3004.948975
             3.031398              0.000000               0.000000              1.000000              4.090000            3031.398438
             3.058318              0.000000               0.000000              1.000000              4.054000            3058.317627
             3.085719              0.000000               0.000000              1.000000              4.018000            3085.719238
